# BICEP2/Keck Array and Planck Joint Analysis January 2015 Data Products
# The BICEP2/Keck and Planck Collaborations, A Joint Analysis of BICEP2/Keck Array and Planck Data
# http://bicepkeck.org/
#
# File: bandpass_B2K.txt 
# Date: 2015-02-23
#
# Experiment bandpasses for the multi-component likelihood described in Section III of A Joint Analysis of BICEP2/Keck Array and Planck Data.
# See the comments in the .dataset file for further information.
# This file provides the frequency spectrum for: B2K.
#   Column 1 = frequency in GHz
#   Column 2 = response to a source with uniform spectral radiance
# See Planck 2013 results IX and BK-II for further details.

60.000 0
60.600 -0.01311
61.200 -0.0111
61.800 -0.01046
62.400 -0.00985
63.000 -0.00897
63.600 -0.00828
64.200 -0.00819
64.800 -0.00795
65.400 -0.0072
66.000 -0.00624
66.600 -0.00532
67.200 -0.00482
67.800 -0.00527
68.400 -0.00604
69.000 -0.00577
69.600 -0.00421
70.200 -0.00263
70.800 -0.00174
71.400 -0.0011
72.000 -0.0001
72.600 0.00104
73.200 0.00176
73.800 0.00225
74.400 0.00281
75.000 0.00308
75.600 0.00309
76.200 0.00326
76.800 0.00342
77.400 0.00357
78.000 0.00402
78.600 0.00474
79.200 0.00543
79.800 0.00622
80.400 0.00691
81.000 0.00709
81.600 0.00699
82.200 0.00684
82.800 0.00693
83.400 0.00734
84.000 0.0079
84.600 0.0082
85.200 0.00819
85.800 0.00841
86.400 0.00884
87.000 0.00898
87.600 0.009
88.200 0.00897
88.800 0.00868
89.400 0.00855
90.000 0.00871
90.600 0.00897
91.200 0.00902
91.800 0.00884
92.400 0.00862
93.000 0.00849
93.600 0.00875
94.200 0.00909
94.800 0.00862
95.400 0.00792
96.000 0.00785
96.600 0.00821
97.200 0.00848
97.800 0.00828
98.400 0.00764
99.000 0.00728
99.600 0.00761
100.200 0.00817
100.800 0.00809
101.400 0.00733
102.000 0.00657
102.600 0.00632
103.200 0.00653
103.800 0.00685
104.400 0.00676
105.000 0.00625
105.600 0.0059
106.200 0.00595
106.800 0.00596
107.400 0.00554
108.000 0.00479
108.600 0.00413
109.200 0.00404
109.800 0.00428
110.400 0.00444
111.000 0.00432
111.600 0.00427
112.200 0.00509
112.800 0.00774
113.400 0.01222
114.000 0.0161
114.600 0.01643
115.200 0.01465
115.800 0.0156
116.400 0.02106
117.000 0.0272
117.600 0.03004
118.200 0.0294
118.800 0.02996
119.400 0.0378
120.000 0.05085
120.600 0.06005
121.200 0.06204
121.800 0.06582
122.400 0.08316
123.000 0.1138
123.600 0.145
124.200 0.16327
124.800 0.17712
125.400 0.2137
126.000 0.2769
126.600 0.33623
127.200 0.36234
127.800 0.36655
128.400 0.38925
129.000 0.44279
129.600 0.49595
130.200 0.52374
130.800 0.54239
131.400 0.58497
132.000 0.6609
132.600 0.73854
133.200 0.78131
133.800 0.79876
134.400 0.82494
135.000 0.86483
135.600 0.8962
136.200 0.90264
136.800 0.88747
137.400 0.87004
138.000 0.86699
138.600 0.87994
139.200 0.904
139.800 0.92884
140.400 0.94104
141.000 0.94407
141.600 0.95455
142.200 0.97485
142.800 0.993
143.400 1
144.000 0.9946
144.600 0.98396
145.200 0.97886
145.800 0.98158
146.400 0.98604
147.000 0.98794
147.600 0.98356
148.200 0.97184
148.800 0.96175
149.400 0.9563
150.000 0.94902
150.600 0.94374
151.200 0.94684
151.800 0.95139
152.400 0.94825
153.000 0.93823
153.600 0.92668
154.200 0.91601
154.800 0.90554
155.400 0.89449
156.000 0.8839
156.600 0.87436
157.200 0.86269
157.800 0.84573
158.400 0.82544
159.000 0.80487
159.600 0.78248
160.200 0.75505
160.800 0.72352
161.400 0.69101
162.000 0.6565
162.600 0.61794
163.200 0.57841
163.800 0.54199
164.400 0.50982
165.000 0.48144
165.600 0.45366
166.200 0.42181
166.800 0.3844
167.400 0.34344
168.000 0.30314
168.600 0.26678
169.200 0.23354
169.800 0.20137
170.400 0.16992
171.000 0.14004
171.600 0.11477
172.200 0.096
172.800 0.08144
173.400 0.06884
174.000 0.05803
174.600 0.04926
175.200 0.04231
175.800 0.03632
176.400 0.03052
177.000 0.02554
177.600 0.02174
178.200 0.01842
178.800 0.01541
179.400 0.01259
180.000 0.00989
180.600 0.00772
181.200 0.00616
181.800 0.00489
182.400 0.00386
183.000 0.0031
183.600 0.00249
184.200 0.002
184.800 0.00164
185.400 0.00128
186.000 0.00095
186.600 0.00075
187.200 0.00064
187.800 0.00055
188.400 0.00044
189.000 0.00029
189.600 0.00018
190.200 0.00015
190.800 0.00016
191.400 0.00015
192.000 0.0001
192.600 3e-05
193.200 -1e-05
193.800 -2e-05
194.400 -5e-05
195.000 -0.0001
195.600 -0.00012
196.200 -0.0001
196.800 -3e-05
197.400 6e-05
198.000 0.00011
198.600 0.00011
199.200 7e-05
199.800 0
200.400 -4e-05
201.000 -9e-05
201.600 -0.00014
202.200 -0.00018
202.800 -0.00019
203.400 -0.00018
204.000 -0.00016
204.600 -0.00015
205.200 -0.00018
205.800 -0.00024
206.400 -0.0003
207.000 -0.00033
207.600 -0.00034
208.200 -0.00035
208.800 -0.00034
209.400 -0.00033
210.000 -0.00034
210.600 -0.00035
211.200 -0.00037
211.800 -0.00039
212.400 -0.00039
213.000 -0.00038
213.600 -0.00038
214.200 -0.00036
214.800 -0.00034
215.400 -0.00032
216.000 -0.00028
216.600 -0.00024
217.200 -0.00022
217.800 -0.00023
218.400 -0.00026
219.000 -0.00029
219.600 -0.00032
220.200 -0.0003
220.800 -0.00027
221.400 -0.00025
222.000 -0.00024
222.600 -0.00021
223.200 -0.00018
223.800 -0.00015
224.400 -0.00013
225.000 -0.00012
225.600 -0.00011
226.200 -0.0001
226.800 -7e-05
227.400 -3e-05
228.000 1e-05
228.600 5e-05
229.200 0.0001
229.800 0.00014
230.400 0.00016
231.000 0.00014
231.600 0.00013
232.200 0.00013
232.800 0.00013
233.400 0.00013
234.000 0.00013
234.600 0.00013
235.200 0.00013
235.800 0.00012
236.400 0.00012
237.000 0.00012
237.600 0.00012
238.200 0.00012
238.800 0.00012
239.400 0.00013
240.000 0.00015
240.600 0.00016
241.200 0.00017
241.800 0.00018
242.400 0.0002
243.000 0.00022
243.600 0.00024
244.200 0.00027
244.800 0.00029
245.400 0.0003
246.000 0.00031
246.600 0.00033
247.200 0.00034
247.800 0.00034
248.400 0.00033
249.000 0.00032
249.600 0

