# BICEP2/Keck Array and Planck Joint Analysis January 2015 Data Products
# The BICEP2/Keck and Planck Collaborations, A Joint Analysis of BICEP2/Keck Array and Planck Data
# http://bicepkeck.org/
#
# File: bandpass_P217.txt 
# Date: 2015-02-23
#
# Experiment bandpasses for the multi-component likelihood described in Section III of A Joint Analysis of BICEP2/Keck Array and Planck Data.
# See the comments in the .dataset file for further information.
# This file provides the frequency spectrum for: P217.
#   Column 1 = frequency in GHz
#   Column 2 = response to a source with uniform spectral radiance
# See Planck 2013 results IX and BK-II for further details.

10.110 6.30137e-14
10.616 6.33178e-14
11.121 6.36382e-14
11.627 6.39755e-14
12.132 6.43297e-14
12.638 6.47011e-14
13.143 6.509e-14
13.649 6.54968e-14
14.154 6.59216e-14
14.660 6.63649e-14
15.165 6.6827e-14
15.671 6.73083e-14
16.177 6.78091e-14
16.682 6.83299e-14
17.188 6.8871e-14
17.693 6.94329e-14
18.199 7.00159e-14
18.704 7.06208e-14
19.210 7.12478e-14
19.715 7.18975e-14
20.221 7.25705e-14
20.726 7.32672e-14
21.232 7.39883e-14
21.737 7.47346e-14
22.243 7.55062e-14
22.748 7.63042e-14
23.254 7.71292e-14
23.759 7.79817e-14
24.265 7.88628e-14
24.770 7.9773e-14
25.276 8.0713e-14
25.781 8.1684e-14
26.287 8.26865e-14
26.792 8.37216e-14
27.298 8.47903e-14
27.803 8.58934e-14
28.309 8.7032e-14
28.814 8.82071e-14
29.320 8.942e-14
29.825 9.06715e-14
30.331 9.19631e-14
30.836 9.32959e-14
31.342 9.46711e-14
31.848 9.60902e-14
32.353 9.75546e-14
32.859 9.90657e-14
33.364 1.00625e-13
33.870 1.02234e-13
34.375 1.03894e-13
34.881 1.05608e-13
35.386 1.07376e-13
35.892 1.09201e-13
36.397 1.11085e-13
36.903 1.1303e-13
37.408 1.15037e-13
37.914 1.17109e-13
38.419 1.19249e-13
38.925 1.21458e-13
39.430 1.23739e-13
39.936 1.26094e-13
40.441 1.28527e-13
40.947 1.3104e-13
41.452 1.33636e-13
41.958 1.36318e-13
42.463 1.3909e-13
42.969 1.41954e-13
43.474 1.44913e-13
43.980 1.47973e-13
44.485 1.51136e-13
44.991 1.54406e-13
45.496 1.57788e-13
46.002 1.61285e-13
46.507 1.64902e-13
47.013 1.68645e-13
47.519 1.72517e-13
48.024 1.76524e-13
48.530 1.80671e-13
49.035 1.84965e-13
49.541 1.8941e-13
50.046 1.94013e-13
50.552 1.9878e-13
51.057 2.03719e-13
51.563 2.08835e-13
52.068 2.14137e-13
52.574 2.19632e-13
53.079 2.25328e-13
53.585 2.31234e-13
54.090 2.37358e-13
54.596 2.43711e-13
55.101 2.503e-13
55.607 2.57138e-13
56.112 2.64235e-13
56.618 2.71601e-13
57.123 2.79249e-13
57.629 2.8719e-13
58.134 2.95439e-13
58.640 3.04009e-13
59.145 3.12914e-13
59.651 3.22169e-13
60.156 3.3179e-13
60.662 3.41793e-13
61.167 3.52197e-13
61.673 3.6302e-13
62.178 3.7428e-13
62.684 3.85999e-13
63.189 3.98197e-13
63.695 4.10898e-13
64.201 4.24125e-13
64.706 4.37903e-13
65.212 4.52259e-13
65.717 4.6722e-13
66.223 4.82815e-13
66.728 4.99076e-13
67.234 5.16036e-13
67.739 5.33727e-13
68.245 5.52186e-13
68.750 5.71454e-13
69.256 5.91566e-13
69.761 6.1257e-13
70.267 6.34508e-13
70.772 6.57428e-13
71.278 6.81381e-13
71.783 7.06418e-13
72.289 7.32598e-13
72.794 7.59978e-13
73.300 7.88622e-13
73.805 8.18596e-13
74.311 8.4997e-13
74.816 8.82818e-13
75.322 9.17221e-13
75.827 9.53261e-13
76.333 9.91026e-13
76.838 1.03061e-12
77.344 1.07211e-12
77.849 1.11564e-12
78.355 1.16131e-12
78.860 1.20923e-12
79.366 1.25952e-12
79.872 1.31234e-12
80.377 1.36781e-12
80.883 1.42609e-12
81.388 1.48734e-12
81.894 1.55173e-12
82.399 1.61944e-12
82.905 1.69066e-12
83.410 1.7656e-12
83.916 1.84448e-12
84.421 1.92754e-12
84.927 2.01501e-12
85.432 2.10717e-12
85.938 2.20429e-12
86.443 2.30668e-12
86.949 2.41466e-12
87.454 2.52857e-12
87.960 2.64877e-12
88.465 2.77566e-12
88.971 2.90964e-12
89.476 3.05118e-12
89.982 3.20074e-12
90.487 3.35883e-12
90.993 3.526e-12
91.498 3.70282e-12
92.004 3.88993e-12
92.509 4.08798e-12
93.015 4.2977e-12
93.520 4.51984e-12
94.026 4.75523e-12
94.531 5.00477e-12
95.037 5.26937e-12
95.543 5.55006e-12
96.048 5.84793e-12
96.554 6.16416e-12
97.059 6.49998e-12
97.565 6.85676e-12
98.070 7.23595e-12
98.576 7.6391e-12
99.081 8.06791e-12
99.587 8.52418e-12
100.092 9.00986e-12
100.598 9.52705e-12
101.103 1.0078e-11
101.609 1.06652e-11
102.114 1.12913e-11
102.620 1.1959e-11
103.125 1.26715e-11
103.631 1.34321e-11
104.136 1.42444e-11
104.642 1.51122e-11
105.147 1.60398e-11
105.653 1.70317e-11
106.158 1.80927e-11
106.664 1.92283e-11
107.169 2.04442e-11
107.675 2.17467e-11
108.180 2.31425e-11
108.686 2.46391e-11
109.191 2.62443e-11
109.697 2.7967e-11
110.202 2.98165e-11
110.708 3.18032e-11
111.214 3.39381e-11
111.719 3.62336e-11
112.225 3.87027e-11
112.730 4.13601e-11
113.236 4.42213e-11
113.741 4.73037e-11
114.247 5.06259e-11
114.752 5.42084e-11
115.258 5.80736e-11
115.763 6.22459e-11
116.269 6.67522e-11
116.774 7.16217e-11
117.280 7.68863e-11
117.785 8.25813e-11
118.291 8.87452e-11
118.796 9.54204e-11
119.302 1.02653e-10
119.807 1.10494e-10
120.313 1.19e-10
120.818 1.28231e-10
121.324 1.38257e-10
121.829 1.49151e-10
122.335 1.60995e-10
122.840 1.73881e-10
123.346 1.87908e-10
123.851 2.03187e-10
124.357 2.19839e-10
124.862 2.38e-10
125.368 2.57818e-10
125.873 2.7946e-10
126.379 3.03106e-10
126.885 3.28961e-10
127.390 3.57249e-10
127.896 3.88221e-10
128.401 4.22153e-10
128.907 4.59353e-10
129.412 5.00166e-10
129.918 5.44974e-10
130.423 5.94203e-10
130.929 6.48327e-10
131.434 7.07879e-10
131.940 7.73449e-10
132.445 8.45703e-10
132.951 9.25378e-10
133.456 1.01331e-09
133.962 1.11043e-09
134.467 1.21777e-09
134.973 1.33653e-09
135.478 1.468e-09
135.984 1.61368e-09
136.489 1.77524e-09
136.995 1.95457e-09
137.500 2.15378e-09
138.006 2.37528e-09
138.511 2.6218e-09
139.017 2.89638e-09
139.522 3.20253e-09
140.028 3.54418e-09
140.533 3.92582e-09
141.039 4.35255e-09
141.544 4.83016e-09
142.050 5.36527e-09
142.556 5.96539e-09
143.061 6.63914e-09
143.567 7.39635e-09
144.072 8.24827e-09
144.578 9.20782e-09
145.083 1.02898e-08
145.589 1.15112e-08
146.094 1.28917e-08
146.600 1.44537e-08
147.105 1.62233e-08
147.611 1.82306e-08
148.116 2.05103e-08
148.622 2.31029e-08
149.127 2.6055e-08
149.633 2.94211e-08
150.138 3.32645e-08
150.644 3.76591e-08
151.149 4.26911e-08
151.655 4.84615e-08
152.160 5.50885e-08
152.666 6.27112e-08
153.171 7.14929e-08
153.677 8.16264e-08
154.182 9.33393e-08
154.688 1.069e-07
155.193 1.22629e-07
155.699 1.40905e-07
156.204 1.6218e-07
156.710 1.86992e-07
157.215 2.15989e-07
157.721 2.49941e-07
158.227 2.8978e-07
158.732 3.36627e-07
159.238 3.91835e-07
159.743 4.57045e-07
160.249 5.34254e-07
160.754 6.25891e-07
161.260 7.34925e-07
161.765 8.64998e-07
162.271 1.0206e-06
162.776 1.20725e-06
163.282 1.43181e-06
163.787 1.7028e-06
164.293 2.03087e-06
164.798 2.42934e-06
165.304 2.91499e-06
165.809 3.50904e-06
166.315 4.23845e-06
166.820 5.13756e-06
167.326 6.25054e-06
167.831 7.63427e-06
168.337 9.36258e-06
168.842 1.15318e-05
169.348 1.42685e-05
169.853 1.77401e-05
170.359 2.21698e-05
170.864 2.78567e-05
171.370 3.52073e-05
171.875 4.47755e-05
172.381 5.73265e-05
172.886 7.3929e-05
173.392 9.60892e-05
173.898 0.000125962
174.403 0.000166668
174.909 0.000222812
175.414 0.000301285
175.920 0.000412627
176.425 0.000573328
176.931 0.000809839
177.436 0.00116595
177.942 0.00171676
178.447 0.00259712
178.953 0.0040627
179.458 0.00663485
179.964 0.0114897
180.469 0.0217129
180.975 0.0596186
181.480 0.141686
181.986 0.309455
182.491 0.398981
182.997 0.414219
183.502 0.439957
184.008 0.427333
184.513 0.387349
185.019 0.349935
185.524 0.31279
186.030 0.30811
186.535 0.322054
187.041 0.328474
187.546 0.368414
188.052 0.394749
188.557 0.40483
189.063 0.40048
189.568 0.422507
190.074 0.479378
190.580 0.507068
191.085 0.495687
191.591 0.518878
192.096 0.496262
192.602 0.54705
193.107 0.642273
193.613 0.589216
194.118 0.489498
194.624 0.481754
195.129 0.510171
195.635 0.484972
196.140 0.465383
196.646 0.521059
197.151 0.540478
197.657 0.461536
198.162 0.415254
198.668 0.499436
199.173 0.571204
199.679 0.532495
200.184 0.449959
200.690 0.462879
201.195 0.525628
201.701 0.553759
202.206 0.574026
202.712 0.608917
203.217 0.657234
203.723 0.703064
204.228 0.700559
204.734 0.692668
205.239 0.806041
205.745 0.90868
206.251 0.836456
206.756 0.69977
207.262 0.750755
207.767 0.844208
208.273 0.852202
208.778 0.78889
209.284 0.757466
209.789 0.719294
210.295 0.678012
210.800 0.692664
211.306 0.74777
211.811 0.690784
212.317 0.618904
212.822 0.596566
213.328 0.620366
213.833 0.640397
214.339 0.609462
214.844 0.584199
215.350 0.592984
215.855 0.650673
216.361 0.736738
216.866 0.753816
217.372 0.759443
217.877 0.720518
218.383 0.72791
218.888 0.766728
219.394 0.76473
219.899 0.732116
220.405 0.738609
220.910 0.738351
221.416 0.694454
221.922 0.732968
222.427 0.788604
222.933 0.814019
223.438 0.736296
223.944 0.657236
224.449 0.659994
224.955 0.694048
225.460 0.750461
225.966 0.775341
226.471 0.740197
226.977 0.662523
227.482 0.625657
227.988 0.658913
228.493 0.702801
228.999 0.699894
229.504 0.649438
230.010 0.673641
230.515 0.737287
231.021 0.748074
231.526 0.720078
232.032 0.716309
232.537 0.759507
233.043 0.781097
233.548 0.703442
234.054 0.579936
234.559 0.536888
235.065 0.558682
235.570 0.621544
236.076 0.706357
236.581 0.683945
237.087 0.651313
237.593 0.679692
238.098 0.7254
238.604 0.754683
239.109 0.769747
239.615 0.736239
240.120 0.696433
240.626 0.644522
241.131 0.595339
241.637 0.607994
242.142 0.643689
242.648 0.675012
243.153 0.675455
243.659 0.633451
244.164 0.611918
244.670 0.589578
245.175 0.598217
245.681 0.607723
246.186 0.59001
246.692 0.536264
247.197 0.447334
247.703 0.374327
248.208 0.382335
248.714 0.453022
249.219 0.491244
249.725 0.475539
250.230 0.460319
250.736 0.449622
251.241 0.410295
251.747 0.381374
252.252 0.387413
252.758 0.423885
253.264 0.421869
253.769 0.352668
254.275 0.277136
254.780 0.241115
255.286 0.256061
255.791 0.281587
256.297 0.262053
256.802 0.196355
257.308 0.151405
257.813 0.135333
258.319 0.133204
258.824 0.130267
259.330 0.109201
259.835 0.0880922
260.341 0.073915
260.846 0.0701856
261.352 0.0743303
262.318 0.0896283
263.817 0.0779986
265.316 0.06118
266.815 0.046916
268.314 0.0365103
269.813 0.0293932
271.312 0.0236921
272.811 0.019654
274.310 0.0162788
275.809 0.013617
277.308 0.0117473
278.807 0.0105606
280.306 0.00963993
281.805 0.0086205
283.304 0.00794396
284.803 0.00746867
286.302 0.00690553
287.801 0.00602322
289.300 0.00556574
290.799 0.0056694
292.298 0.00547043
293.797 0.00478575
295.296 0.00465528
296.795 0.00478627
298.293 0.00447006
299.792 0.00696548
301.291 0.00585698
302.790 0.00516907
304.289 0.00498218
305.788 0.00488932
307.287 0.00487419
308.786 0.00476228
310.285 0.00464015
311.784 0.00450783
313.283 0.00413089
314.782 0.00352879
316.281 0.00361268
317.780 0.00374176
319.279 0.00346239
320.778 0.00307284
322.277 0.00283267
323.776 0.00281002
325.275 0.00267608
326.774 0.00243567
328.273 0.00237703
329.772 0.00250487
331.271 0.00242715
332.770 0.00220239
334.269 0.00192564
335.768 0.00170248
337.267 0.00168101
338.765 0.00143191
340.264 0.00119447
341.763 0.00116223
343.262 0.00111081
344.761 0.000856757
346.260 0.000752419
347.759 0.000804053
349.258 0.000730955
350.757 0.000508464
352.256 0.000498672
353.755 0.00064191
355.254 0.000638358
356.753 0.000408806
358.252 0.00015344
359.751 3.55466e-05
361.250 1.74771e-05
362.749 5.98929e-05
364.248 9.11152e-05
365.747 8.31265e-05
367.246 5.71865e-05
368.745 2.26676e-05
370.244 5.75008e-07
371.743 6.47172e-06
373.242 3.74148e-07
374.741 9.52561e-06
376.240 1.46744e-05
377.738 1.27987e-05
379.237 6.11861e-06
380.736 9.77954e-07
382.235 1.96771e-06
383.734 1.44397e-06
385.233 9.27175e-07
386.732 2.65414e-06
388.231 3.91611e-06
389.730 2.2933e-06
391.229 4.36711e-06
392.728 4.94421e-06
394.227 1.71183e-06
395.726 2.59201e-07
397.225 4.31056e-06
398.724 7.64193e-06
400.223 8.63302e-06
401.722 8.94765e-06
403.221 9.99768e-06
404.720 1.10483e-05
406.219 8.14032e-06
407.718 6.87047e-06
409.217 8.68808e-06
410.716 9.74759e-06
412.215 8.25406e-06
413.714 6.65954e-06
415.213 6.93208e-06
416.712 7.73694e-06
418.210 7.40785e-06
419.709 6.71703e-06
421.208 7.08751e-06
422.707 6.2848e-06
424.206 4.77829e-06
425.705 4.29887e-06
427.204 3.83235e-06
428.703 2.78475e-06
430.202 2.75873e-06
431.701 3.48996e-06
433.200 3.6212e-06
434.699 3.53836e-06
436.198 4.36558e-06
437.697 4.74538e-06
439.196 4.02617e-06
440.695 3.27952e-06
442.194 3.19961e-06
443.693 3.07605e-06
445.192 2.88914e-06
446.691 2.97109e-06
448.190 3.10324e-06
449.689 2.70416e-06
451.188 2.25386e-06
452.687 2.18608e-06
454.186 2.56991e-06
455.685 3.04406e-06
457.184 3.02277e-06
458.682 2.53398e-06
460.181 2.60656e-06
461.680 2.92594e-06
463.179 2.78625e-06
464.678 2.87858e-06
466.177 3.18457e-06
467.676 3.43093e-06
469.175 3.71429e-06
470.674 3.77576e-06
472.173 3.06499e-06
473.672 2.55346e-06
475.171 2.31288e-06
476.670 2.37453e-06
478.169 2.84261e-06
479.668 2.81846e-06
481.167 2.25474e-06
482.666 1.62094e-06
484.165 9.46072e-07
485.664 2.96189e-07
487.163 4.63867e-07
488.662 1.9642e-06
490.161 5.08629e-06
491.660 1.00193e-05
493.159 1.59025e-05
494.658 2.12031e-05
496.156 2.32192e-05
497.655 1.86347e-05
499.154 1.45857e-05
500.653 1.52602e-05
502.152 1.49908e-05
503.651 1.24331e-05
505.150 1.14898e-05
506.649 1.31148e-05
508.148 1.92765e-05
509.647 3.03725e-05
511.146 3.90742e-05
512.645 4.90639e-05
514.144 5.29688e-05
515.643 4.52953e-05
517.142 4.24247e-05
518.641 4.5767e-05
520.140 4.18896e-05
521.639 3.08611e-05
523.138 2.36878e-05
524.637 2.45966e-05
526.136 2.47761e-05
527.635 2.09934e-05
529.134 1.77663e-05
530.633 1.58742e-05
532.132 1.23455e-05
533.631 1.06011e-05
535.130 9.81559e-06
536.628 8.50985e-06
538.128 6.98588e-06
539.626 5.90824e-06
541.125 4.16815e-06
542.624 2.72039e-06
544.123 1.92957e-06
545.622 1.4746e-06
547.121 1.17228e-06
548.620 1.046e-06
550.119 9.01108e-07
551.618 7.0708e-07
553.117 5.3335e-07
554.616 4.08508e-07
556.115 3.43885e-07
557.614 2.94617e-07
559.113 2.42394e-07
560.612 1.86608e-07
562.111 1.27525e-07
563.610 7.9982e-08
565.109 6.86394e-08
566.608 7.25938e-08
568.107 7.12036e-08
569.606 6.86545e-08
571.105 5.59435e-08
572.604 4.07146e-08
574.103 3.86535e-08
575.602 4.66583e-08
577.100 4.47032e-08
578.599 3.90845e-08
580.098 3.77833e-08
581.597 4.37414e-08
583.096 5.19695e-08
584.595 4.98338e-08
586.094 4.35148e-08
587.593 4.33846e-08
589.092 4.53953e-08
590.591 4.06702e-08
592.090 3.39873e-08
593.589 3.47841e-08
595.088 3.73e-08
596.587 3.47796e-08
598.086 3.3233e-08
599.585 4.3477e-08
601.084 4.60294e-08
602.583 3.70869e-08
604.082 2.4699e-08
605.581 1.60409e-08
607.080 1.26001e-08
608.579 1.3724e-08
610.078 1.20149e-08
611.577 7.41403e-09
613.076 4.56866e-09
614.575 3.99661e-09
616.073 4.38396e-09
617.572 3.85922e-09
619.071 2.62647e-09
620.570 2.23537e-09
622.069 3.02023e-09
623.568 3.65151e-09
625.067 3.36772e-09
626.566 3.38948e-09
628.065 3.59455e-09
629.564 2.56658e-09
631.063 1.68591e-09
632.562 1.78256e-09
634.061 1.72627e-09
635.560 9.4215e-10
637.059 1.04483e-09
638.558 1.15063e-09
640.057 6.76065e-10
641.556 5.7994e-10
643.055 1.27191e-09
644.554 1.59864e-09
646.053 1.5665e-09
647.552 1.28096e-09
649.051 7.65771e-10
650.550 1.69693e-10
652.049 1.07709e-10
653.548 1.3128e-10
655.047 1.60892e-10
656.545 2.78457e-10
658.044 2.50759e-10
659.543 9.31631e-10
661.042 1.2465e-09
662.541 5.33442e-10
664.040 1.50534e-10
665.539 1.49271e-11
667.038 6.9954e-11
668.537 5.70325e-11
670.036 4.62152e-11
671.535 1.27676e-11
673.034 7.82924e-12
674.533 9.09644e-12
676.032 6.48693e-13
677.531 9.7595e-11
679.030 1.05752e-10
680.529 1.24297e-10
682.028 1.53869e-10
683.527 6.50204e-10
685.026 7.41695e-10
686.525 3.36033e-10
688.024 1.57982e-10
689.523 1.82959e-10
691.022 1.47713e-11
692.521 1.05122e-10
694.020 1.37971e-10
695.519 2.16733e-10
697.017 4.32986e-10
698.516 6.85384e-10
700.015 9.18044e-10
701.514 1.20453e-09
703.013 1.4906e-09
704.512 1.70853e-09
706.011 2.30697e-09
707.510 2.49172e-09
709.009 2.09798e-09
710.508 1.89997e-09
712.007 1.95666e-09
713.506 1.57318e-09
715.005 1.07516e-09
716.504 7.45414e-10
718.003 6.82224e-10
719.502 8.58621e-10
721.001 1.14097e-09
722.500 1.22256e-09
723.999 1.18605e-09
725.498 1.20385e-09
726.997 1.16902e-09
728.496 1.25398e-09
729.995 1.45107e-09
731.494 1.37275e-09
732.993 9.74412e-10
734.492 8.37284e-10
735.990 8.70694e-10
737.489 7.82661e-10
738.988 5.50439e-10
740.487 4.06255e-10
741.986 3.5721e-10
743.485 3.47104e-10
744.984 3.55955e-10
746.483 3.4778e-10
747.982 3.03997e-10
749.481 2.66292e-10
750.980 1.89639e-10
752.479 8.88095e-11
753.978 2.38125e-11
755.477 9.95882e-11
756.976 1.51366e-10
758.475 1.94015e-10
759.974 2.41758e-10
761.473 2.7535e-10
762.972 2.38577e-10
764.471 1.55834e-10
765.970 8.33043e-11
767.469 1.58658e-11
768.968 1.50622e-11
770.467 1.27617e-11
771.966 1.1987e-11
773.465 1.1882e-11
774.964 1.03402e-11
776.462 8.69898e-12
777.961 8.38388e-12
779.460 4.26822e-12
780.959 7.57574e-12
782.458 1.53717e-11
783.957 1.78299e-11
785.456 1.46707e-11
786.955 1.04374e-11
788.454 5.17662e-12
789.953 5.65862e-14
791.452 4.68187e-12
792.951 4.55203e-12
794.450 4.68252e-12
795.949 4.85869e-12
797.448 4.68561e-12
798.947 4.87924e-12
800.446 6.0626e-12
801.945 7.32013e-12
803.444 7.2513e-12
804.943 2.85962e-11
806.442 4.60661e-11
807.941 6.81688e-11
809.440 8.56902e-11
810.939 8.73225e-11
812.438 7.91194e-11
813.937 7.31305e-11
815.435 6.36019e-11
816.934 5.25565e-11
818.433 4.40191e-11
819.932 3.5414e-11
821.431 2.98319e-11
822.930 2.81219e-11
824.429 2.34035e-11
825.928 1.85719e-11
827.427 1.56956e-11
828.926 1.33651e-11
830.425 1.0899e-11
831.924 1.01272e-11
833.423 7.59193e-12
834.922 6.50267e-12
836.421 6.93854e-12
837.920 6.29492e-12
839.419 5.3285e-12
840.918 6.28523e-12
842.417 6.45067e-12
843.916 5.39731e-12
845.415 6.08086e-12
846.914 6.05934e-12
848.413 4.04035e-12
849.912 2.57243e-12
851.411 2.23257e-12
852.910 1.83934e-12
854.409 5.76955e-13
855.907 4.89516e-13
857.406 3.82823e-13
858.905 4.2669e-13
860.404 5.24357e-13
861.903 7.13237e-13
863.402 2.21489e-13
864.901 1.18169e-12
866.400 2.3988e-12
867.899 3.33908e-12
869.398 6.30847e-12
870.897 1.32903e-11
872.396 1.91417e-11
873.895 1.85412e-11
875.394 1.45376e-11
876.893 1.24817e-11
878.392 1.45546e-11
879.891 1.29248e-11
881.390 7.5332e-12
882.889 7.87842e-12
884.388 1.02116e-11
885.887 9.81974e-12
887.386 6.26657e-12
888.885 2.61025e-12
890.384 7.553e-13
891.883 6.62506e-14
893.382 5.98733e-14
894.880 6.62516e-14
896.379 8.2953e-14
897.878 8.56852e-14
899.377 4.6626e-15
900.876 3.94947e-15
902.375 3.38376e-15
903.874 3.81415e-15
905.373 1.57063e-15
906.872 3.04016e-14
908.371 9.60509e-15
909.870 2.00092e-13
911.369 6.99244e-13
912.868 7.72748e-13
914.367 6.22262e-13
915.866 3.80025e-13
917.365 1.60503e-13
918.864 5.57656e-14
920.363 2.33663e-14
921.862 8.6155e-15
923.361 6.91403e-15
924.860 3.06806e-14
926.359 7.67678e-14
927.858 1.36215e-13
929.357 2.70048e-13
930.856 5.63259e-13
932.355 1.19427e-12
933.854 2.18501e-12
935.352 3.0912e-12
936.851 3.40796e-12
938.350 2.88149e-12
939.849 2.93961e-12
941.348 3.46737e-12
942.847 3.39306e-12
944.346 3.63762e-12
945.845 3.68382e-12
947.344 3.2923e-12
948.843 3.11727e-12
950.342 3.85724e-12
951.841 4.53852e-12
953.340 6.52172e-12
954.839 1.01823e-11
956.338 1.37318e-11
957.837 1.4632e-11
959.336 1.27828e-11
960.835 1.29284e-11
962.334 1.26752e-11
963.833 1.21341e-11
965.332 1.14049e-11
966.831 1.05653e-11
968.330 9.65901e-12
969.829 8.72307e-12
971.328 7.74444e-12
972.827 6.75326e-12
974.326 5.82772e-12
975.824 5.01361e-12
977.323 4.36544e-12
978.822 3.91765e-12
980.321 3.66395e-12
981.820 3.58305e-12
983.319 3.69833e-12
984.818 3.96506e-12
986.317 4.3221e-12
987.816 4.72387e-12
989.315 5.13531e-12
990.814 5.51207e-12
992.313 5.76714e-12
993.812 5.80863e-12
995.311 5.55702e-12
996.810 4.99601e-12
998.309 4.13276e-12
999.808 3.10201e-12

