# BICEP2/Keck Array and Planck Joint Analysis January 2015 Data Products
# The BICEP2/Keck and Planck Collaborations, A Joint Analysis of BICEP2/Keck Array and Planck Data
# http://bicepkeck.org/
#
# File: bandpass_P143.txt 
# Date: 2015-02-23
#
# Experiment bandpasses for the multi-component likelihood described in Section III of A Joint Analysis of BICEP2/Keck Array and Planck Data.
# See the comments in the .dataset file for further information.
# This file provides the frequency spectrum for: P143.
#   Column 1 = frequency in GHz
#   Column 2 = response to a source with uniform spectral radiance
# See Planck 2013 results IX and BK-II for further details.

10.110 7.3153e-11
10.616 7.37948e-11
11.121 7.44741e-11
11.627 7.51921e-11
12.132 7.59496e-11
12.638 7.67479e-11
13.143 7.7588e-11
13.649 7.84713e-11
14.154 7.9399e-11
14.660 8.03725e-11
15.165 8.13933e-11
15.671 8.24629e-11
16.177 8.3583e-11
16.682 8.47553e-11
17.188 8.59817e-11
17.693 8.7264e-11
18.199 8.86043e-11
18.704 9.00048e-11
19.210 9.14678e-11
19.715 9.29956e-11
20.221 9.45907e-11
20.726 9.6256e-11
21.232 9.79941e-11
21.737 9.9808e-11
22.243 1.01701e-10
22.748 1.03676e-10
23.254 1.05737e-10
23.759 1.07888e-10
24.265 1.10132e-10
24.770 1.12474e-10
25.276 1.14918e-10
25.781 1.17468e-10
26.287 1.20129e-10
26.792 1.22907e-10
27.298 1.25807e-10
27.803 1.28835e-10
28.309 1.31997e-10
28.814 1.35299e-10
29.320 1.38748e-10
29.825 1.42351e-10
30.331 1.46117e-10
30.836 1.50052e-10
31.342 1.54167e-10
31.848 1.58468e-10
32.353 1.62968e-10
32.859 1.67675e-10
33.364 1.726e-10
33.870 1.77756e-10
34.375 1.83154e-10
34.881 1.88807e-10
35.386 1.94729e-10
35.892 2.00935e-10
36.397 2.07441e-10
36.903 2.14263e-10
37.408 2.21418e-10
37.914 2.28926e-10
38.419 2.36807e-10
38.925 2.45082e-10
39.430 2.53774e-10
39.936 2.62907e-10
40.441 2.72508e-10
40.947 2.82603e-10
41.452 2.93223e-10
41.958 3.04399e-10
42.463 3.16165e-10
42.969 3.28557e-10
43.474 3.41614e-10
43.980 3.55377e-10
44.485 3.69891e-10
44.991 3.85202e-10
45.496 4.01362e-10
46.002 4.18426e-10
46.507 4.36452e-10
47.013 4.55502e-10
47.519 4.75645e-10
48.024 4.96953e-10
48.530 5.19504e-10
49.035 5.43382e-10
49.541 5.68676e-10
50.046 5.95486e-10
50.552 6.23914e-10
51.057 6.54075e-10
51.563 6.8609e-10
52.068 7.2009e-10
52.574 7.56217e-10
53.079 7.94626e-10
53.585 8.3548e-10
54.090 8.78961e-10
54.596 9.25262e-10
55.101 9.74592e-10
55.607 1.02718e-09
56.112 1.08327e-09
56.618 1.14314e-09
57.123 1.20707e-09
57.629 1.27538e-09
58.134 1.34841e-09
58.640 1.42654e-09
59.145 1.51017e-09
59.651 1.59974e-09
60.156 1.69575e-09
60.662 1.7987e-09
61.167 1.90919e-09
61.673 2.02783e-09
62.178 2.15531e-09
62.684 2.29238e-09
63.189 2.43986e-09
63.695 2.59864e-09
64.201 2.76972e-09
64.706 2.95417e-09
65.212 3.15318e-09
65.717 3.36805e-09
66.223 3.6002e-09
66.728 3.85122e-09
67.234 4.12284e-09
67.739 4.41696e-09
68.245 4.73571e-09
68.750 5.08139e-09
69.256 5.45659e-09
69.761 5.86414e-09
70.267 6.3072e-09
70.772 6.78923e-09
71.278 7.31412e-09
71.783 7.88613e-09
72.289 8.51004e-09
72.794 9.19113e-09
73.300 9.9353e-09
73.805 1.07491e-08
74.311 1.16399e-08
74.816 1.26158e-08
75.322 1.36859e-08
75.827 1.48605e-08
76.333 1.61509e-08
76.838 1.75701e-08
77.344 1.91323e-08
77.849 2.08537e-08
78.355 2.27525e-08
78.860 2.48491e-08
79.366 2.71665e-08
79.872 2.97307e-08
80.377 3.25713e-08
80.883 3.57212e-08
81.388 3.92184e-08
81.894 4.31054e-08
82.399 4.74308e-08
82.905 5.22498e-08
83.410 5.76252e-08
83.916 6.36288e-08
84.421 7.03422e-08
84.927 7.78594e-08
85.432 8.62873e-08
85.938 9.57494e-08
86.443 1.06387e-07
86.949 1.18362e-07
87.454 1.31863e-07
87.960 1.47106e-07
88.465 1.64342e-07
88.971 1.83862e-07
89.476 2.06002e-07
89.982 2.31154e-07
90.487 2.59775e-07
90.993 2.92399e-07
91.498 3.29648e-07
92.004 3.72256e-07
92.509 4.2108e-07
93.015 4.77133e-07
93.520 5.41608e-07
94.026 6.15918e-07
94.531 7.01733e-07
95.037 8.01045e-07
95.543 9.16227e-07
96.048 1.0501e-06
96.554 1.20607e-06
97.059 1.38821e-06
97.565 1.60142e-06
98.070 1.85163e-06
98.576 2.14605e-06
99.081 2.49342e-06
99.587 2.9044e-06
100.092 3.39209e-06
100.598 3.97254e-06
101.103 4.66559e-06
101.609 5.4958e-06
102.114 6.49375e-06
102.620 7.6976e-06
103.125 9.1553e-06
103.631 1.09274e-05
104.136 1.30905e-05
104.642 1.57423e-05
105.147 1.90083e-05
105.653 2.30501e-05
106.158 2.80774e-05
106.664 3.43644e-05
107.169 4.22724e-05
107.675 5.22801e-05
108.180 6.50286e-05
108.686 8.13826e-05
109.191 0.000104154
109.697 0.000128438
110.202 0.00016789
110.708 0.000212861
111.214 0.000280269
111.719 0.000364769
112.225 0.000488714
112.730 0.000653495
113.236 0.000895588
113.741 0.00123763
114.247 0.00175142
114.752 0.00252376
115.258 0.0037406
115.763 0.00571887
116.269 0.00910809
116.774 0.0153203
117.280 0.027892
117.785 0.0601439
118.291 0.144767
118.796 0.308414
119.302 0.371722
119.807 0.365301
120.313 0.474145
120.818 0.528104
121.324 0.371774
121.829 0.381073
122.335 0.493247
122.840 0.528971
123.346 0.521658
123.851 0.553515
124.357 0.686434
124.862 0.643578
125.368 0.537986
125.873 0.572593
126.379 0.670547
126.885 0.740897
127.390 0.68826
127.896 0.685048
128.401 0.807167
128.907 0.895195
129.412 0.884436
129.918 0.876164
130.423 0.759003
130.929 0.727299
131.434 0.74291
131.940 0.689244
132.445 0.697968
132.951 0.679389
133.456 0.628007
133.962 0.658422
134.467 0.729952
134.973 0.686361
135.478 0.613996
135.984 0.609041
136.489 0.562525
136.995 0.60054
137.500 0.626588
138.006 0.603701
138.511 0.612724
139.017 0.644371
139.522 0.566192
140.028 0.502273
140.533 0.538856
141.039 0.691143
141.544 0.826079
142.050 0.775262
142.556 0.646153
143.061 0.599541
143.567 0.568753
144.072 0.561304
144.578 0.56962
145.083 0.60311
145.589 0.589924
146.094 0.543804
146.600 0.534779
147.105 0.525959
147.611 0.469319
148.116 0.368541
148.622 0.298266
149.127 0.335927
149.633 0.41468
150.138 0.46932
150.644 0.488516
151.149 0.485646
151.655 0.497296
152.160 0.548367
152.666 0.568328
153.171 0.5668
153.677 0.624304
154.182 0.645523
154.688 0.548459
155.193 0.45337
155.699 0.454772
156.204 0.476318
156.710 0.499658
157.215 0.537811
157.721 0.529637
158.227 0.48307
158.732 0.471586
159.238 0.482991
159.743 0.503767
160.249 0.489691
160.754 0.476083
161.260 0.442676
161.765 0.414081
162.271 0.397899
162.776 0.390956
163.282 0.359041
163.787 0.33812
164.293 0.349093
164.798 0.353531
165.304 0.33493
165.809 0.295474
166.315 0.258361
166.820 0.269245
167.326 0.298732
167.831 0.320561
168.337 0.252266
168.842 0.178912
169.348 0.13752
169.853 0.0998991
170.359 0.0902721
170.864 0.0863048
171.370 0.0697199
171.875 0.040387
172.381 0.0232595
172.886 0.0230151
173.392 0.0218643
173.898 0.0205612
174.403 0.0185495
174.909 0.0137936
175.414 0.00842228
175.920 0.00558849
176.425 0.00438906
176.878 0.00491446
178.377 0.00386596
179.875 0.00303311
181.374 0.00250482
182.873 0.0021907
184.372 0.0019893
185.871 0.0017859
187.370 0.00172028
188.869 0.00177967
190.368 0.00178249
191.867 0.00164378
193.366 0.00138096
194.865 0.0010356
196.364 0.000886865
197.863 0.000832946
199.362 0.000772538
200.861 0.00073223
202.360 0.00081043
203.859 0.000794401
205.358 0.000630035
206.857 0.000481072
208.356 0.000451253
209.855 0.000455169
211.354 0.000432358
212.853 0.000412519
214.352 0.000392033
215.851 0.000380592
217.350 0.000433604
218.848 0.000488351
220.347 0.000520937
221.846 0.000497019
223.345 0.000456729
224.844 0.00046481
226.343 0.000482731
227.842 0.000424327
229.341 0.00035072
230.840 0.000309586
232.339 0.000269411
233.838 0.000254671
235.337 0.000270535
236.836 0.000303238
238.335 0.000361985
239.834 0.000462916
241.333 0.000534063
242.832 0.000599149
244.331 0.000577917
245.830 0.000447128
247.329 0.000349929
248.828 0.00029931
250.327 0.000226176
251.826 0.000164221
253.325 0.000137649
254.824 0.000127938
256.323 0.000118858
257.822 9.90749e-05
259.320 7.47815e-05
260.819 5.4313e-05
262.318 3.66442e-05
263.817 2.5973e-05
265.316 2.19585e-05
266.815 2.35977e-05
268.314 2.6548e-05
269.813 2.40988e-05
271.312 1.69043e-05
272.811 1.07501e-05
274.310 6.44861e-06
275.809 4.78414e-06
277.308 5.21025e-06
278.807 3.93576e-06
280.306 2.56268e-06
281.805 2.12319e-06
283.304 1.74246e-06
284.803 9.15637e-07
286.302 7.38074e-07
287.801 9.62426e-07
289.300 9.83271e-07
290.799 8.06694e-07
292.298 9.87489e-07
293.797 1.10541e-06
295.296 9.16741e-07
296.795 8.40988e-07
298.293 1.15416e-06
299.792 3.43946e-08
301.291 4.08842e-08
302.790 3.57681e-08
304.289 3.46695e-08
305.788 3.89665e-08
307.287 2.28171e-08
308.786 4.7997e-08
310.285 2.10582e-08
311.784 7.30038e-09
313.283 1.34322e-08
314.782 1.07296e-08
316.281 7.96433e-09
317.780 9.43506e-09
319.279 1.29828e-08
320.778 8.72945e-09
322.277 7.38098e-09
323.776 5.57294e-09
325.275 4.84156e-09
326.774 9.70686e-09
328.273 1.00094e-08
329.772 1.07887e-08
331.271 7.98382e-09
332.770 3.88248e-09
334.269 1.86428e-08
335.768 2.12768e-08
337.267 5.50439e-08
338.765 1.03803e-07
340.264 1.5036e-07
341.763 2.18469e-07
343.262 4.21098e-07
344.761 5.67754e-07
346.260 4.80981e-07
347.759 3.37085e-07
349.258 4.19993e-07
350.757 6.10287e-07
352.256 6.2405e-07
353.755 4.45202e-07
355.254 2.14484e-07
356.753 1.38779e-08
358.252 1.66913e-07
359.751 1.31311e-07
361.250 1.51076e-07
362.749 3.68813e-07
364.248 2.97596e-07
365.747 4.64528e-08
367.246 6.30387e-08
368.745 7.93256e-08
370.244 1.00083e-07
371.743 1.18031e-07
373.242 1.24553e-07
374.741 1.56489e-07
376.240 1.12439e-07
377.738 6.41147e-08
379.237 5.26563e-08
380.736 1.14661e-07
382.235 1.81597e-07
383.734 1.51e-07
385.233 1.41716e-07
386.732 1.5883e-07
388.231 1.57214e-07
389.730 8.38748e-08
391.229 2.22229e-08
392.728 2.99881e-09
394.227 1.42401e-08
395.726 3.29829e-08
397.225 2.85584e-08
398.724 9.31968e-09
400.223 7.09049e-09
401.722 8.48256e-09
403.221 5.23391e-09
404.720 6.76184e-09
406.219 5.25916e-09
407.718 5.7466e-09
409.217 3.39543e-09
410.716 1.54372e-09
412.215 1.86295e-09
413.714 8.38687e-09
415.213 8.76883e-09
416.712 2.00084e-09
418.210 2.88489e-09
419.709 3.31769e-09
421.208 8.05931e-09
422.707 7.01657e-09
424.206 4.47369e-09
425.705 4.84244e-09
427.204 6.87018e-09
428.703 6.75471e-10
430.202 1.95673e-09
431.701 3.00221e-09
433.200 3.43401e-09
434.699 2.60774e-09
436.198 4.24456e-09
437.697 6.57761e-09
439.196 3.34771e-09
440.695 1.13835e-09
442.194 7.02904e-10
443.693 4.31533e-09
445.192 5.83329e-09
446.691 3.68027e-09
448.190 1.63509e-09
449.689 1.19939e-09
451.188 7.43875e-10
452.687 2.0161e-09
454.186 4.88029e-10
455.685 5.68674e-10
457.184 2.36458e-10
458.682 1.00013e-09
460.181 1.88228e-09
461.680 1.48647e-09
463.179 6.99388e-10
464.678 3.29831e-10
466.177 1.68519e-10
467.676 1.76888e-10
469.175 1.56276e-10
470.674 4.3339e-11
472.173 1.51684e-10
473.672 2.99504e-10
475.171 3.89731e-10
476.670 4.04564e-10
478.169 2.59298e-10
479.668 1.30519e-10
481.167 9.25426e-11
482.666 1.4366e-10
484.165 3.05075e-10
485.664 6.07349e-10
487.163 6.08731e-10
488.662 5.35816e-10
490.161 1.14097e-09
491.660 2.8833e-09
493.159 5.58173e-09
494.658 1.13739e-08
496.156 1.7806e-08
497.655 1.70894e-08
499.154 1.13286e-08
500.653 6.17206e-09
502.152 2.4227e-09
503.651 7.72675e-10
505.150 1.68754e-10
506.649 8.93167e-12
508.148 4.31419e-11
509.647 1.73619e-10
511.146 2.7136e-10
512.645 2.47663e-10
514.144 1.69448e-10
515.643 1.38819e-10
517.142 1.0597e-10
518.641 2.01928e-10
520.140 2.26533e-10
521.639 7.13708e-11
523.138 5.75745e-11
524.637 3.99429e-11
526.136 1.15517e-10
527.635 1.99696e-10
529.134 2.30476e-10
530.633 1.69386e-10
532.132 8.49674e-11
533.631 5.30051e-11
535.130 3.52437e-11
536.628 1.95959e-11
538.128 1.91036e-11
539.626 1.93664e-11
541.125 2.24462e-11
542.624 1.92612e-11
544.123 1.10649e-12
545.622 1.0271e-12
547.121 8.87742e-13
548.620 7.1803e-13
550.119 3.05919e-14
551.618 3.83156e-13
553.117 5.30795e-13
554.616 2.14216e-12
556.115 4.38951e-12
557.614 5.30221e-12
559.113 4.47506e-12
560.612 2.14609e-12
562.111 5.37479e-13
563.610 1.04125e-12
565.109 2.31046e-12
566.608 1.52962e-12
568.107 8.7054e-13
569.606 6.67738e-13
571.105 1.05768e-13
572.604 1.76949e-13
574.103 8.97443e-13
575.602 5.40368e-13
577.100 4.25039e-13
578.599 4.48268e-13
580.098 3.75557e-13
581.597 3.18365e-13
583.096 2.66535e-13
584.595 2.48013e-13
586.094 2.33405e-13
587.593 2.29481e-13
589.092 2.11544e-13
590.591 1.85267e-13
592.090 1.65076e-13
593.589 1.40187e-13
595.088 1.2625e-13
596.587 1.03429e-13
598.086 8.64986e-14
599.585 5.98577e-14
601.084 1.45771e-14
602.583 4.08635e-14
604.082 3.33738e-14
605.581 1.28161e-14
607.080 8.11596e-16
608.579 4.71933e-15
610.078 9.85918e-15
611.577 2.47144e-14
613.076 5.51995e-14
614.575 9.35907e-14
616.073 1.45836e-13
617.572 1.98011e-13
619.071 2.3676e-13
620.570 2.61198e-13
622.069 2.56492e-13
623.568 1.56229e-13
625.067 2.16407e-13
626.566 2.57057e-13
628.065 8.2445e-15
629.564 2.66527e-13
631.063 4.07899e-13
632.562 1.5222e-13
634.061 1.37661e-13
635.560 1.29166e-13
637.059 5.37145e-14
638.558 1.16533e-13
640.057 2.4593e-13
641.556 2.69282e-13
643.055 1.71879e-13
644.554 3.13748e-16
646.053 1.1756e-13
647.552 1.37562e-13
649.051 4.27439e-14
650.550 8.31106e-14
652.049 2.99012e-13
653.548 4.42329e-13
655.047 5.04834e-13
656.545 4.43618e-13
658.044 4.09735e-13
659.543 6.04554e-13
661.042 5.69589e-13
662.541 4.73967e-13
664.040 2.15865e-13
665.539 1.99173e-13
667.038 2.4573e-13
668.537 2.89917e-13
670.036 1.87019e-13
671.535 8.83487e-14
673.034 1.17575e-13
674.533 1.76861e-13
676.032 1.37413e-13
677.531 2.28958e-14
679.030 9.08665e-14
680.529 1.54143e-13
682.028 2.73676e-13
683.527 3.97839e-13
685.026 4.00385e-13
686.525 3.83987e-13
688.024 3.1371e-13
689.523 1.69851e-13
691.022 8.74241e-14
692.521 1.23899e-13
694.020 2.63925e-13
695.519 3.46987e-13
697.017 3.38392e-13
698.516 3.3659e-13
700.015 3.31104e-13
701.514 4.73285e-13
703.013 7.85123e-13
704.512 8.48278e-13
706.011 6.14184e-13
707.510 3.71913e-13
709.009 3.18241e-13
710.508 2.51684e-13
712.007 1.6778e-13
713.506 1.56825e-13
715.005 1.55787e-13
716.504 1.30552e-13
718.003 8.61054e-14
719.502 6.16994e-14
721.001 5.60259e-14
722.500 5.16971e-14
723.999 3.91799e-14
725.498 2.59725e-14
726.997 1.40094e-14
728.496 1.06797e-14
729.995 1.38461e-14
731.494 1.57749e-14
732.993 1.41903e-14
734.492 1.68167e-14
735.990 1.90751e-14
737.489 1.52442e-14
738.988 9.73764e-15
740.487 7.04957e-15
741.986 5.00694e-15
743.485 3.5316e-15
744.984 1.88611e-15
746.483 1.70474e-15
747.982 2.23622e-15
749.481 2.62352e-15
750.980 2.50097e-15
752.479 6.5119e-16
753.978 6.0174e-16
755.477 4.99429e-16
756.976 2.16966e-16
758.475 1.77151e-16
759.974 5.3743e-16
761.473 6.69276e-16
762.972 7.80838e-16
764.471 1.18561e-15
765.970 1.38763e-15
767.469 7.60021e-16
768.968 3.69658e-16
770.467 7.83961e-16
771.966 5.97622e-16
773.465 1.11231e-16
774.964 3.34556e-16
776.462 6.85618e-16
777.961 6.4069e-16
779.460 6.86628e-16
780.959 3.11395e-16
782.458 2.16884e-17
783.957 1.24838e-16
785.456 1.63411e-16
786.955 1.27179e-16
788.454 4.87356e-17
789.953 2.56338e-17
791.452 1.70912e-17
792.951 8.34931e-17
794.450 1.22299e-16
795.949 5.6657e-17
797.448 3.58324e-17
798.947 3.59779e-17
800.446 2.64102e-17
801.945 5.57335e-17
803.444 2.42634e-16
804.943 4.09121e-16
806.442 3.99402e-16
807.941 1.40989e-16
809.440 1.5374e-16
810.939 3.31316e-16
812.438 4.16212e-16
813.937 3.08868e-16
815.435 1.47118e-16
816.934 1.96351e-16
818.433 1.11219e-16
819.932 5.09103e-17
821.431 8.77695e-17
822.930 7.21728e-17
824.429 6.97046e-17
825.928 4.66703e-17
827.427 2.53089e-17
828.926 9.9744e-18
830.425 3.53676e-18
831.924 1.48689e-17
833.423 6.06969e-18
834.922 1.03988e-18
836.421 6.85773e-19
837.920 7.55435e-20
839.419 1.08078e-18
840.918 6.07885e-19
842.417 1.22719e-18
843.916 8.48913e-19
845.415 6.66336e-19
846.914 3.893e-19
848.413 5.63942e-19
849.912 1.60306e-18
851.411 2.67911e-18
852.910 4.28673e-18
854.409 8.02496e-18
855.907 6.42707e-18
857.406 1.28775e-18
858.905 1.00408e-18
860.404 8.93051e-19
861.903 6.17643e-19
863.402 4.40646e-19
864.901 3.00242e-19
866.400 5.71975e-19
867.899 3.4976e-19
869.398 3.6934e-18
870.897 8.86661e-18
872.396 1.60496e-17
873.895 2.45253e-17
875.394 3.30788e-17
876.893 3.48354e-17
878.392 3.55904e-17
879.891 3.52839e-17
881.390 4.99274e-17
882.889 6.1475e-17
884.388 4.658e-17
885.887 3.38017e-17
887.386 2.23164e-17
888.885 1.29492e-17
890.384 6.42034e-18
891.883 2.27915e-18
893.382 7.02316e-19
894.880 1.00569e-18
896.379 9.23216e-19
897.878 2.38672e-18
899.377 2.06125e-18
900.876 3.66646e-18
902.375 6.09876e-18
903.874 1.16214e-18
905.373 1.88198e-18
906.872 1.85892e-18
908.371 3.01764e-18
909.870 5.25646e-18
911.369 3.15485e-18
912.868 6.44995e-19
914.367 1.71832e-18
915.866 3.29701e-18
917.365 8.24541e-18
918.864 7.53232e-18
920.363 4.66716e-18
921.862 2.36649e-18
923.361 1.99779e-18
924.860 3.2503e-18
926.359 4.80017e-20
927.858 5.80196e-18
929.357 3.40594e-19
930.856 4.47853e-19
932.355 1.31372e-18
933.854 2.02413e-18
935.352 5.72085e-18
936.851 7.46495e-18
938.350 6.25575e-18
939.849 5.45551e-18
941.348 2.58788e-18
942.847 1.76413e-19
944.346 6.67796e-18
945.845 3.11255e-18
947.344 1.69896e-17
948.843 1.33618e-17
950.342 4.27111e-18
951.841 8.83146e-17
953.340 7.5784e-17
954.839 2.16214e-17
956.338 1.60155e-17
957.837 1.41772e-17
959.336 1.58932e-17
960.835 5.0564e-18
962.334 1.56098e-17
963.833 5.6502e-18
965.332 2.64439e-17
966.831 4.00571e-17
968.330 3.50987e-17
969.829 1.11873e-17
971.328 6.42228e-19
972.827 1.93765e-18
974.326 2.05518e-19
975.824 2.18621e-18
977.323 1.28348e-18
978.822 3.74142e-18
980.321 9.44182e-18
981.820 5.29064e-17
983.319 7.39314e-17
984.818 1.20565e-16
986.317 2.29283e-16
987.816 2.08641e-16
989.315 1.3865e-16
990.814 1.6186e-16
992.313 3.18052e-16
993.812 5.28832e-16
995.311 6.82683e-16
996.810 7.3493e-16
998.309 6.24593e-16
999.808 3.53324e-16

